#Collected Data-386
#Intensity_unit=counts
#Attenuator_coefficient=1.000000
10.0000 25582.0000
10.0200 25317.0000
10.0400 25570.0000
10.0600 25651.0000
10.0800 25489.0000
10.1000 25531.0000
10.1200 25248.0000
10.1400 25420.0000
10.1600 25393.0000
10.1800 25747.0000
10.2000 25166.0000
10.2200 25286.0000
10.2400 25265.0000
10.2600 25059.0000
10.2800 25287.0000
10.3000 25331.0000
10.3200 25305.0000
10.3400 25013.0000
10.3600 24967.0000
10.3800 25157.0000
10.4000 25238.0000
10.4200 25302.0000
10.4400 25170.0000
10.4600 24854.0000
10.4800 25109.0000
10.5000 25090.0000
10.5200 24978.0000
10.5400 25213.0000
10.5600 25033.0000
10.5800 24758.0000
10.6000 24869.0000
10.6200 24802.0000
10.6400 24603.0000
10.6600 24771.0000
10.6800 24710.0000
10.7000 24528.0000
10.7200 24770.0000
10.7400 24479.0000
10.7600 24644.0000
10.7800 24748.0000
10.8000 24701.0000
10.8200 24525.0000
10.8400 24593.0000
10.8600 24549.0000
10.8800 24796.0000
10.9000 24681.0000
10.9200 24522.0000
10.9400 24327.0000
10.9600 24460.0000
10.9800 24622.0000
11.0000 24451.0000
11.0200 24552.0000
11.0400 24525.0000
11.0600 24117.0000
11.0800 24151.0000
11.1000 24242.0000
11.1200 24233.0000
11.1400 24428.0000
11.1600 24159.0000
11.1800 23934.0000
11.2000 24368.0000
11.2200 24398.0000
11.2400 24413.0000
11.2600 24261.0000
11.2800 23964.0000
11.3000 24256.0000
11.3200 24227.0000
11.3400 24340.0000
11.3600 23603.0000
11.3800 23557.0000
11.4000 24036.0000
11.4200 23923.0000
11.4400 23832.0000
11.4600 23788.0000
11.4800 23757.0000
11.5000 23839.0000
11.5200 23930.0000
11.5400 23892.0000
11.5600 23899.0000
11.5800 23941.0000
11.6000 23629.0000
11.6200 23571.0000
11.6400 23508.0000
11.6600 23773.0000
11.6800 23336.0000
11.7000 23503.0000
11.7200 23258.0000
11.7400 23577.0000
11.7600 23531.0000
11.7800 23417.0000
11.8000 23712.0000
11.8200 23516.0000
11.8400 23545.0000
11.8600 23523.0000
11.8800 23413.0000
11.9000 23423.0000
11.9200 23347.0000
11.9400 23226.0000
11.9600 23175.0000
11.9800 23437.0000
12.0000 23254.0000
12.0200 23095.0000
12.0400 23285.0000
12.0600 23206.0000
12.0800 23043.0000
12.1000 23206.0000
12.1200 23084.0000
12.1400 23056.0000
12.1600 23110.0000
12.1800 23347.0000
12.2000 23223.0000
12.2200 23014.0000
12.2400 23084.0000
12.2600 23001.0000
12.2800 23022.0000
12.3000 23214.0000
12.3200 22984.0000
12.3400 22854.0000
12.3600 22770.0000
12.3800 22908.0000
12.4000 22734.0000
12.4200 22975.0000
12.4400 22627.0000
12.4600 22757.0000
12.4800 22465.0000
12.5000 22610.0000
12.5200 22533.0000
12.5400 22553.0000
12.5600 22571.0000
12.5800 22595.0000
12.6000 22483.0000
12.6200 22369.0000
12.6400 22200.0000
12.6600 22498.0000
12.6800 22361.0000
12.7000 22351.0000
12.7200 22538.0000
12.7400 22266.0000
12.7600 22374.0000
12.7800 22373.0000
12.8000 22351.0000
12.8200 22311.0000
12.8400 22166.0000
12.8600 22238.0000
12.8800 22061.0000
12.9000 22006.0000
12.9200 22157.0000
12.9400 22230.0000
12.9600 21988.0000
12.9800 21998.0000
13.0000 21972.0000
13.0200 22029.0000
13.0400 22129.0000
13.0600 22048.0000
13.0800 21753.0000
13.1000 21774.0000
13.1200 21839.0000
13.1400 21779.0000
13.1600 22098.0000
13.1800 21905.0000
13.2000 22135.0000
13.2200 21781.0000
13.2400 21680.0000
13.2600 21628.0000
13.2800 21671.0000
13.3000 21828.0000
13.3200 21913.0000
13.3400 21852.0000
13.3600 21498.0000
13.3800 21794.0000
13.4000 21748.0000
13.4200 21447.0000
13.4400 21770.0000
13.4600 21540.0000
13.4800 21573.0000
13.5000 21663.0000
13.5200 21417.0000
13.5400 21371.0000
13.5600 21447.0000
13.5800 21305.0000
13.6000 21454.0000
13.6200 21611.0000
13.6400 21170.0000
13.6600 21486.0000
13.6800 21497.0000
13.7000 21315.0000
13.7200 21486.0000
13.7400 21288.0000
13.7600 21401.0000
13.7800 21201.0000
13.8000 21135.0000
13.8200 21210.0000
13.8400 21137.0000
13.8600 21335.0000
13.8800 21138.0000
13.9000 21099.0000
13.9200 21119.0000
13.9400 20963.0000
13.9600 20787.0000
13.9800 21029.0000
14.0000 21050.0000
14.0200 20888.0000
14.0400 20613.0000
14.0600 20892.0000
14.0800 20774.0000
14.1000 20561.0000
14.1200 20837.0000
14.1400 20920.0000
14.1600 21143.0000
14.1800 20780.0000
14.2000 20667.0000
14.2200 20850.0000
14.2400 20548.0000
14.2600 20617.0000
14.2800 20882.0000
14.3000 20867.0000
14.3200 20900.0000
14.3400 20823.0000
14.3600 20626.0000
14.3800 20538.0000
14.4000 20791.0000
14.4200 20723.0000
14.4400 20645.0000
14.4600 20645.0000
14.4800 20664.0000
14.5000 20714.0000
14.5200 20667.0000
14.5400 20541.0000
14.5600 20356.0000
14.5800 20528.0000
14.6000 20403.0000
14.6200 20493.0000
14.6400 20466.0000
14.6600 20320.0000
14.6800 20355.0000
14.7000 20597.0000
14.7200 20552.0000
14.7400 20188.0000
14.7600 20386.0000
14.7800 20110.0000
14.8000 20240.0000
14.8200 20145.0000
14.8400 20421.0000
14.8600 20293.0000
14.8800 20101.0000
14.9000 20000.0000
14.9200 20211.0000
14.9400 20317.0000
14.9600 20096.0000
14.9800 20225.0000
15.0000 20196.0000
15.0200 20095.0000
15.0400 20231.0000
15.0600 19854.0000
15.0800 19681.0000
15.1000 20049.0000
15.1200 20173.0000
15.1400 20003.0000
15.1600 20308.0000
15.1800 20086.0000
15.2000 19669.0000
15.2200 20053.0000
15.2400 19947.0000
15.2600 20112.0000
15.2800 20004.0000
15.3000 20017.0000
15.3200 20025.0000
15.3400 19957.0000
15.3600 19898.0000
15.3800 20024.0000
15.4000 19814.0000
15.4200 19874.0000
15.4400 19670.0000
15.4600 19878.0000
15.4800 19867.0000
15.5000 20077.0000
15.5200 19992.0000
15.5400 20124.0000
15.5600 19654.0000
15.5800 19744.0000
15.6000 19699.0000
15.6200 19754.0000
15.6400 19675.0000
15.6600 19689.0000
15.6800 19974.0000
15.7000 19849.0000
15.7200 19787.0000
15.7400 19773.0000
15.7600 19609.0000
15.7800 19660.0000
15.8000 19708.0000
15.8200 19667.0000
15.8400 19672.0000
15.8600 19602.0000
15.8800 19691.0000
15.9000 19581.0000
15.9200 19611.0000
15.9400 19541.0000
15.9600 19475.0000
15.9800 19671.0000
16.0000 19271.0000
16.0200 19459.0000
16.0400 19463.0000
16.0600 19428.0000
16.0800 19404.0000
16.1000 19379.0000
16.1200 19576.0000
16.1400 19502.0000
16.1600 19449.0000
16.1800 19296.0000
16.2000 19326.0000
16.2200 19175.0000
16.2400 19038.0000
16.2600 19296.0000
16.2800 19391.0000
16.3000 19178.0000
16.3200 19210.0000
16.3400 19271.0000
16.3600 19108.0000
16.3800 19117.0000
16.4000 19154.0000
16.4200 19326.0000
16.4400 18900.0000
16.4600 19178.0000
16.4800 19207.0000
16.5000 18856.0000
16.5200 19050.0000
16.5400 19031.0000
16.5600 18906.0000
16.5800 18928.0000
16.6000 18697.0000
16.6200 18844.0000
16.6400 18948.0000
16.6600 18685.0000
16.6800 18837.0000
16.7000 18819.0000
16.7200 18852.0000
16.7400 19024.0000
16.7600 18786.0000
16.7800 18973.0000
16.8000 18749.0000
16.8200 18937.0000
16.8400 18523.0000
16.8600 18670.0000
16.8800 18754.0000
16.9000 18439.0000
16.9200 18726.0000
16.9400 18730.0000
16.9600 18424.0000
16.9800 18586.0000
17.0000 18563.0000
17.0200 18648.0000
17.0400 18716.0000
17.0600 18444.0000
17.0800 18499.0000
17.1000 18449.0000
17.1200 18549.0000
17.1400 18298.0000
17.1600 18492.0000
17.1800 18309.0000
17.2000 18206.0000
17.2200 18436.0000
17.2400 18182.0000
17.2600 18176.0000
17.2800 18192.0000
17.3000 18274.0000
17.3200 18320.0000
17.3400 18004.0000
17.3600 18291.0000
17.3800 18235.0000
17.4000 18280.0000
17.4200 18281.0000
17.4400 18213.0000
17.4600 18116.0000
17.4800 18287.0000
17.5000 18095.0000
17.5200 17930.0000
17.5400 17939.0000
17.5600 18045.0000
17.5800 17920.0000
17.6000 18036.0000
17.6200 18142.0000
17.6400 17900.0000
17.6600 17699.0000
17.6800 17841.0000
17.7000 17790.0000
17.7200 17983.0000
17.7400 17682.0000
17.7600 17718.0000
17.7800 17598.0000
17.8000 17535.0000
17.8200 17833.0000
17.8400 17812.0000
17.8600 17725.0000
17.8800 17605.0000
17.9000 17671.0000
17.9200 17602.0000
17.9400 17705.0000
17.9600 17514.0000
17.9800 17610.0000
18.0000 17737.0000
18.0200 17509.0000
18.0400 17454.0000
18.0600 17489.0000
18.0800 17429.0000
18.1000 17493.0000
18.1200 17478.0000
18.1400 17365.0000
18.1600 17198.0000
18.1800 17323.0000
18.2000 17438.0000
18.2200 17394.0000
18.2400 17233.0000
18.2600 17164.0000
18.2800 17268.0000
18.3000 17430.0000
18.3200 17140.0000
18.3400 17168.0000
18.3600 17251.0000
18.3800 17426.0000
18.4000 17085.0000
18.4200 17149.0000
18.4400 17316.0000
18.4600 17142.0000
18.4800 17271.0000
18.5000 17161.0000
18.5200 17021.0000
18.5400 17005.0000
18.5600 17102.0000
18.5800 16899.0000
18.6000 17027.0000
18.6200 16900.0000
18.6400 16984.0000
18.6600 16873.0000
18.6800 17035.0000
18.7000 16905.0000
18.7200 16704.0000
18.7400 16868.0000
18.7600 16497.0000
18.7800 16897.0000
18.8000 17002.0000
18.8200 16525.0000
18.8400 16622.0000
18.8600 16893.0000
18.8800 16811.0000
18.9000 16648.0000
18.9200 16553.0000
18.9400 16863.0000
18.9600 16481.0000
18.9800 16764.0000
19.0000 16731.0000
19.0200 16706.0000
19.0400 16649.0000
19.0600 16634.0000
19.0800 16605.0000
19.1000 16530.0000
19.1200 16634.0000
19.1400 16539.0000
19.1600 16767.0000
19.1800 16539.0000
19.2000 16294.0000
19.2200 16391.0000
19.2400 16545.0000
19.2600 16255.0000
19.2800 16436.0000
19.3000 16332.0000
19.3200 16256.0000
19.3400 16349.0000
19.3600 16521.0000
19.3800 16372.0000
19.4000 16300.0000
19.4200 16313.0000
19.4400 16343.0000
19.4600 16451.0000
19.4800 16433.0000
19.5000 16350.0000
19.5200 16452.0000
19.5400 16431.0000
19.5600 16206.0000
19.5800 16315.0000
19.6000 16089.0000
19.6200 15862.0000
19.6400 16109.0000
19.6600 16353.0000
19.6800 16202.0000
19.7000 15959.0000
19.7200 16161.0000
19.7400 15949.0000
19.7600 15884.0000
19.7800 16077.0000
19.8000 16083.0000
19.8200 16003.0000
19.8400 16014.0000
19.8600 15963.0000
19.8800 15919.0000
19.9000 15816.0000
19.9200 15945.0000
19.9400 15738.0000
19.9600 15969.0000
19.9800 15799.0000
20.0000 15858.0000
20.0200 15900.0000
20.0400 15881.0000
20.0600 15661.0000
20.0800 15733.0000
20.1000 15939.0000
20.1200 15760.0000
20.1400 15422.0000
20.1600 15549.0000
20.1800 15950.0000
20.2000 15780.0000
20.2200 15639.0000
20.2400 15677.0000
20.2600 15629.0000
20.2800 15546.0000
20.3000 15466.0000
20.3200 15571.0000
20.3400 15540.0000
20.3600 15497.0000
20.3800 15576.0000
20.4000 15698.0000
20.4200 15572.0000
20.4400 15287.0000
20.4600 15573.0000
20.4800 15617.0000
20.5000 15528.0000
20.5200 15322.0000
20.5400 15419.0000
20.5600 15219.0000
20.5800 15552.0000
20.6000 15407.0000
20.6200 15498.0000
20.6400 15375.0000
20.6600 15273.0000
20.6800 15458.0000
20.7000 15473.0000
20.7200 15137.0000
20.7400 15323.0000
20.7600 15425.0000
20.7800 15386.0000
20.8000 15076.0000
20.8200 14977.0000
20.8400 15231.0000
20.8600 15088.0000
20.8800 15042.0000
20.9000 15182.0000
20.9200 14931.0000
20.9400 15008.0000
20.9600 15117.0000
20.9800 15097.0000
21.0000 15019.0000
21.0200 15355.0000
21.0400 15131.0000
21.0600 14736.0000
21.0800 14699.0000
21.1000 14893.0000
21.1200 14909.0000
21.1400 14915.0000
21.1600 14871.0000
21.1800 14931.0000
21.2000 14753.0000
21.2200 15028.0000
21.2400 14975.0000
21.2600 14696.0000
21.2800 14741.0000
21.3000 14870.0000
21.3200 14640.0000
21.3400 14639.0000
21.3600 14650.0000
21.3800 14696.0000
21.4000 14746.0000
21.4200 14843.0000
21.4400 14466.0000
21.4600 14746.0000
21.4800 14698.0000
21.5000 14631.0000
21.5200 14666.0000
21.5400 14851.0000
21.5600 14566.0000
21.5800 14457.0000
21.6000 14460.0000
21.6200 14494.0000
21.6400 14315.0000
21.6600 14490.0000
21.6800 14323.0000
21.7000 14577.0000
21.7200 14501.0000
21.7400 14448.0000
21.7600 14305.0000
21.7800 14377.0000
21.8000 14161.0000
21.8200 14569.0000
21.8400 14477.0000
21.8600 14295.0000
21.8800 14443.0000
21.9000 14613.0000
21.9200 14199.0000
21.9400 14340.0000
21.9600 14253.0000
21.9800 14199.0000
22.0000 14247.0000
22.0200 14316.0000
22.0400 14194.0000
22.0600 14065.0000
22.0800 14208.0000
22.1000 14452.0000
22.1200 14309.0000
22.1400 14111.0000
22.1600 14297.0000
22.1800 14154.0000
22.2000 14058.0000
22.2200 14203.0000
22.2400 13989.0000
22.2600 14186.0000
22.2800 14067.0000
22.3000 14072.0000
22.3200 13986.0000
22.3400 14132.0000
22.3600 14063.0000
22.3800 14094.0000
22.4000 14002.0000
22.4200 13887.0000
22.4400 14051.0000
22.4600 13972.0000
22.4800 13914.0000
22.5000 13953.0000
22.5200 13943.0000
22.5400 13848.0000
22.5600 13856.0000
22.5800 13705.0000
22.6000 13821.0000
22.6200 13929.0000
22.6400 13877.0000
22.6600 13848.0000
22.6800 13728.0000
22.7000 13731.0000
22.7200 13738.0000
22.7400 13805.0000
22.7600 13744.0000
22.7800 13685.0000
22.8000 13767.0000
22.8200 13632.0000
22.8400 13576.0000
22.8600 13698.0000
22.8800 13622.0000
22.9000 13647.0000
22.9200 13541.0000
22.9400 13548.0000
22.9600 13599.0000
22.9800 13503.0000
23.0000 13508.0000
23.0200 13367.0000
23.0400 13601.0000
23.0600 13535.0000
23.0800 13733.0000
23.1000 13462.0000
23.1200 13549.0000
23.1400 13438.0000
23.1600 13505.0000
23.1800 13495.0000
23.2000 13468.0000
23.2200 13208.0000
23.2400 13368.0000
23.2600 13361.0000
23.2800 13458.0000
23.3000 13530.0000
23.3200 13293.0000
23.3400 13517.0000
23.3600 13253.0000
23.3800 13096.0000
23.4000 12986.0000
23.4200 13280.0000
23.4400 13415.0000
23.4600 13136.0000
23.4800 13195.0000
23.5000 13051.0000
23.5200 13216.0000
23.5400 13043.0000
23.5600 13093.0000
23.5800 13122.0000
23.6000 13137.0000
23.6200 13159.0000
23.6400 13182.0000
23.6600 13170.0000
23.6800 12951.0000
23.7000 13066.0000
23.7200 13120.0000
23.7400 13332.0000
23.7600 12917.0000
23.7800 13207.0000
23.8000 13044.0000
23.8200 13087.0000
23.8400 13072.0000
23.8600 13152.0000
23.8800 13009.0000
23.9000 13018.0000
23.9200 13118.0000
23.9400 12750.0000
23.9600 13047.0000
23.9800 13099.0000
24.0000 12875.0000
24.0200 13084.0000
24.0400 12925.0000
24.0600 13029.0000
24.0800 12778.0000
24.1000 12805.0000
24.1200 12774.0000
24.1400 12932.0000
24.1600 13026.0000
24.1800 12830.0000
24.2000 12665.0000
24.2200 12826.0000
24.2400 12837.0000
24.2600 12879.0000
24.2800 12561.0000
24.3000 12644.0000
24.3200 12654.0000
24.3400 12943.0000
24.3600 12654.0000
24.3800 12703.0000
24.4000 12684.0000
24.4200 12689.0000
24.4400 12577.0000
24.4600 12688.0000
24.4800 12683.0000
24.5000 12750.0000
24.5200 12689.0000
24.5400 12559.0000
24.5600 12502.0000
24.5800 12828.0000
24.6000 12895.0000
24.6200 12664.0000
24.6400 12518.0000
24.6600 12600.0000
24.6800 12663.0000
24.7000 12493.0000
24.7200 12506.0000
24.7400 12400.0000
24.7600 12567.0000
24.7800 12393.0000
24.8000 12470.0000
24.8200 12678.0000
24.8400 12611.0000
24.8600 12441.0000
24.8800 12741.0000
24.9000 12451.0000
24.9200 12603.0000
24.9400 12707.0000
24.9600 12613.0000
24.9800 12699.0000
25.0000 12830.0000
25.0200 12855.0000
25.0400 12959.0000
25.0600 12775.0000
25.0800 13002.0000
25.1000 12853.0000
25.1200 12552.0000
25.1400 12371.0000
25.1600 12442.0000
25.1800 12513.0000
25.2000 12532.0000
25.2200 12286.0000
25.2400 12359.0000
25.2600 12322.0000
25.2800 12315.0000
25.3000 12110.0000
25.3200 12156.0000
25.3400 12188.0000
25.3600 12253.0000
25.3800 12145.0000
25.4000 12144.0000
25.4200 12058.0000
25.4400 11978.0000
25.4600 12044.0000
25.4800 11919.0000
25.5000 11895.0000
25.5200 11979.0000
25.5400 12149.0000
25.5600 12044.0000
25.5800 11886.0000
25.6000 11990.0000
25.6200 11924.0000
25.6400 11841.0000
25.6600 11902.0000
25.6800 11984.0000
25.7000 11990.0000
25.7200 11860.0000
25.7400 11772.0000
25.7600 11768.0000
25.7800 11846.0000
25.8000 11929.0000
25.8200 11753.0000
25.8400 11702.0000
25.8600 11619.0000
25.8800 11834.0000
25.9000 11863.0000
25.9200 11774.0000
25.9400 11726.0000
25.9600 11720.0000
25.9800 11718.0000
26.0000 11864.0000
26.0200 11545.0000
26.0400 11630.0000
26.0600 11560.0000
26.0800 11367.0000
26.1000 11501.0000
26.1200 11544.0000
26.1400 11602.0000
26.1600 11573.0000
26.1800 11665.0000
26.2000 11646.0000
26.2200 11448.0000
26.2400 11606.0000
26.2600 11398.0000
26.2800 11534.0000
26.3000 11513.0000
26.3200 11676.0000
26.3400 11619.0000
26.3600 11314.0000
26.3800 11566.0000
26.4000 11331.0000
26.4200 11581.0000
26.4400 11534.0000
26.4600 11559.0000
26.4800 11427.0000
26.5000 11504.0000
26.5200 11442.0000
26.5400 11365.0000
26.5600 11339.0000
26.5800 11142.0000
26.6000 11482.0000
26.6200 11325.0000
26.6400 11366.0000
26.6600 11331.0000
26.6800 11325.0000
26.7000 11338.0000
26.7200 11186.0000
26.7400 11366.0000
26.7600 11103.0000
26.7800 11205.0000
26.8000 11141.0000
26.8200 11222.0000
26.8400 11278.0000
26.8600 11194.0000
26.8800 11206.0000
26.9000 11192.0000
26.9200 11186.0000
26.9400 11128.0000
26.9600 11212.0000
26.9800 11148.0000
27.0000 11013.0000
27.0200 11213.0000
27.0400 11124.0000
27.0600 11177.0000
27.0800 11198.0000
27.1000 11060.0000
27.1200 11156.0000
27.1400 11299.0000
27.1600 11314.0000
27.1800 11221.0000
27.2000 11304.0000
27.2200 11194.0000
27.2400 11327.0000
27.2600 11327.0000
27.2800 11094.0000
27.3000 11221.0000
27.3200 11080.0000
27.3400 11059.0000
27.3600 11072.0000
27.3800 10807.0000
27.4000 11082.0000
27.4200 11130.0000
27.4400 10938.0000
27.4600 10840.0000
27.4800 10963.0000
27.5000 10745.0000
27.5200 10854.0000
27.5400 10850.0000
27.5600 10890.0000
27.5800 10742.0000
27.6000 10953.0000
27.6200 10836.0000
27.6400 10892.0000
27.6600 10852.0000
27.6800 10937.0000
27.7000 10853.0000
27.7200 10753.0000
27.7400 10897.0000
27.7600 10849.0000
27.7800 10719.0000
27.8000 10716.0000
27.8200 10790.0000
27.8400 11026.0000
27.8600 10540.0000
27.8800 10779.0000
27.9000 10728.0000
27.9200 10705.0000
27.9400 10786.0000
27.9600 10794.0000
27.9800 10515.0000
28.0000 10785.0000
28.0200 10644.0000
28.0400 10700.0000
28.0600 10850.0000
28.0800 10682.0000
28.1000 10693.0000
28.1200 10670.0000
28.1400 10689.0000
28.1600 10700.0000
28.1800 10594.0000
28.2000 10598.0000
28.2200 10622.0000
28.2400 10535.0000
28.2600 10484.0000
28.2800 10521.0000
28.3000 10505.0000
28.3200 10669.0000
28.3400 10585.0000
28.3600 10475.0000
28.3800 10491.0000
28.4000 10375.0000
28.4200 10511.0000
28.4400 10636.0000
28.4600 10422.0000
28.4800 10406.0000
28.5000 10449.0000
28.5200 10436.0000
28.5400 10548.0000
28.5600 10486.0000
28.5800 10231.0000
28.6000 10332.0000
28.6200 10466.0000
28.6400 10398.0000
28.6600 10339.0000
28.6800 10243.0000
28.7000 10507.0000
28.7200 10338.0000
28.7400 10461.0000
28.7600 10367.0000
28.7800 10462.0000
28.8000 10422.0000
28.8200 10335.0000
28.8400 10417.0000
28.8600 10326.0000
28.8800 10356.0000
28.9000 10518.0000
28.9200 10230.0000
28.9400 10312.0000
28.9600 10618.0000
28.9800 10592.0000
29.0000 10600.0000
29.0200 10434.0000
29.0400 10495.0000
29.0600 10530.0000
29.0800 10572.0000
29.1000 10658.0000
29.1200 10500.0000
29.1400 10700.0000
29.1600 10812.0000
29.1800 10865.0000
29.2000 10818.0000
29.2200 10581.0000
29.2400 10872.0000
29.2600 10861.0000
29.2800 10714.0000
29.3000 10888.0000
29.3200 10629.0000
29.3400 10706.0000
29.3600 10598.0000
29.3800 10696.0000
29.4000 10525.0000
29.4200 10555.0000
29.4400 10484.0000
29.4600 10507.0000
29.4800 10691.0000
29.5000 10378.0000
29.5200 10499.0000
29.5400 10361.0000
29.5600 10468.0000
29.5800 10545.0000
29.6000 10417.0000
29.6200 10335.0000
29.6400 10686.0000
29.6600 10762.0000
29.6800 10530.0000
29.7000 10483.0000
29.7200 10854.0000
29.7400 10726.0000
29.7600 10830.0000
29.7800 10807.0000
29.8000 10942.0000
29.8200 11095.0000
29.8400 11202.0000
29.8600 11311.0000
29.8800 11368.0000
29.9000 11631.0000
